Frequency (Hz)	Level (dB)
46.875000	-33.696022
93.750000	-41.767422
140.625000	-48.460892
187.500000	-49.882786
234.375000	-49.853592
281.250000	-49.820053
328.125000	-50.436691
375.000000	-50.895123
421.875000	-51.366112
468.750000	-51.649235
515.625000	-52.157856
562.500000	-52.254082
609.375000	-52.306362
656.250000	-52.198765
703.125000	-52.280270
750.000000	-52.384281
796.875000	-52.012966
843.750000	-52.181583
890.625000	-52.268513
937.500000	-52.519650
984.375000	-52.825024
1031.250000	-53.293301
1078.125000	-54.011543
1125.000000	-54.490799
1171.875000	-55.133789
1218.750000	-55.744205
1265.625000	-55.822628
1312.500000	-56.340004
1359.375000	-56.351822
1406.250000	-56.781593
1453.125000	-57.082760
1500.000000	-57.269188
1546.875000	-57.612301
1593.750000	-58.029030
1640.625000	-58.262253
1687.500000	-58.499031
1734.375000	-58.396366
1781.250000	-59.025352
1828.125000	-58.961395
1875.000000	-58.901443
1921.875000	-59.118908
1968.750000	-59.379017
2015.625000	-59.294209
2062.500000	-59.716728
2109.375000	-60.010727
2156.250000	-59.838467
2203.125000	-60.095562
2250.000000	-59.622593
2296.875000	-59.683666
2343.750000	-59.957897
2390.625000	-60.003490
2437.500000	-59.999233
2484.375000	-59.981678
2531.250000	-59.979385
2578.125000	-59.804802
2625.000000	-59.654140
2671.875000	-59.429668
2718.750000	-59.445087
2765.625000	-59.849792
2812.500000	-59.883102
2859.375000	-59.654503
2906.250000	-59.754002
2953.125000	-60.065582
3000.000000	-60.061192
3046.875000	-59.916264
3093.750000	-60.005970
3140.625000	-60.137615
3187.500000	-60.081116
3234.375000	-60.031631
3281.250000	-60.725906
3328.125000	-60.516781
3375.000000	-59.746132
3421.875000	-59.999386
3468.750000	-60.425999
3515.625000	-60.347958
3562.500000	-60.214130
3609.375000	-60.272842
3656.250000	-60.397064
3703.125000	-60.477657
3750.000000	-60.372768
3796.875000	-60.866566
3843.750000	-60.694828
3890.625000	-60.423279
3937.500000	-60.508766
3984.375000	-60.916031
4031.250000	-61.011406
4078.125000	-61.059536
4125.000000	-60.929722
4171.875000	-61.296940
4218.750000	-61.092636
4265.625000	-61.007584
4312.500000	-61.097599
4359.375000	-61.208706
4406.250000	-61.419586
4453.125000	-61.178619
4500.000000	-61.548134
4546.875000	-61.983231
4593.750000	-61.778770
4640.625000	-61.296196
4687.500000	-61.256077
4734.375000	-61.627441
4781.250000	-61.869034
4828.125000	-61.791233
4875.000000	-61.970577
4921.875000	-62.127441
4968.750000	-62.122322
5015.625000	-62.189323
5062.500000	-62.358452
5109.375000	-62.503170
5156.250000	-62.395309
5203.125000	-62.141582
5250.000000	-62.678272
5296.875000	-62.731197
5343.750000	-62.489552
5390.625000	-62.852642
5437.500000	-62.654778
5484.375000	-62.781868
5531.250000	-62.992294
5578.125000	-62.624271
5625.000000	-62.727833
5671.875000	-62.840965
5718.750000	-63.256145
5765.625000	-63.651302
5812.500000	-63.674034
5859.375000	-63.848431
5906.250000	-64.006371
5953.125000	-63.905552
6000.000000	-64.012390
6046.875000	-63.975513
6093.750000	-63.643082
6140.625000	-64.246765
6187.500000	-64.639565
6234.375000	-64.815392
6281.250000	-64.673187
6328.125000	-64.653419
6375.000000	-64.385788
6421.875000	-64.461517
6468.750000	-65.054611
6515.625000	-65.506516
6562.500000	-65.869537
6609.375000	-65.605309
6656.250000	-65.718735
6703.125000	-65.978096
6750.000000	-65.693031
6796.875000	-65.872665
6843.750000	-66.436440
6890.625000	-66.415710
6937.500000	-66.431229
6984.375000	-66.569626
7031.250000	-66.673653
7078.125000	-66.666412
7125.000000	-66.825882
7171.875000	-67.045715
7218.750000	-67.282143
7265.625000	-67.463966
7312.500000	-67.534889
7359.375000	-67.460487
7406.250000	-67.616539
7453.125000	-67.854073
7500.000000	-68.015305
7546.875000	-68.296410
7593.750000	-68.222816
7640.625000	-68.329262
7687.500000	-68.555008
7734.375000	-68.386131
7781.250000	-68.289726
7828.125000	-68.441223
7875.000000	-69.005196
7921.875000	-68.693993
7968.750000	-68.594627
8015.625000	-68.785858
8062.500000	-68.983658
8109.375000	-68.956123
8156.250000	-69.130096
8203.125000	-69.178734
8250.000000	-68.989891
8296.875000	-69.341614
8343.750000	-69.321045
8390.625000	-69.467438
8437.500000	-69.717705
8484.375000	-69.536469
8531.250000	-69.598694
8578.125000	-69.901680
8625.000000	-70.268204
8671.875000	-70.128769
8718.750000	-70.420113
8765.625000	-70.330109
8812.500000	-70.279869
8859.375000	-70.704269
8906.250000	-70.758675
8953.125000	-70.316086
9000.000000	-70.023285
9046.875000	-70.456055
9093.750000	-70.559959
9140.625000	-71.090263
9187.500000	-71.073227
9234.375000	-71.152405
9281.250000	-71.131340
9328.125000	-71.428566
9375.000000	-71.744453
9421.875000	-71.863251
9468.750000	-71.639915
9515.625000	-71.609566
9562.500000	-71.695541
9609.375000	-71.735695
9656.250000	-71.750969
9703.125000	-71.972633
9750.000000	-71.465164
9796.875000	-71.540344
9843.750000	-71.670807
9890.625000	-71.970123
9937.500000	-71.783073
9984.375000	-71.845474
10031.250000	-71.912415
10078.125000	-72.218781
10125.000000	-72.111366
10171.875000	-71.967224
10218.750000	-72.055618
10265.625000	-72.409714
10312.500000	-72.421890
10359.375000	-72.223526
10406.250000	-72.398705
10453.125000	-72.417526
10500.000000	-72.983879
10546.875000	-73.031639
10593.750000	-72.832634
10640.625000	-72.712357
10687.500000	-72.819000
10734.375000	-73.192795
10781.250000	-73.470734
10828.125000	-73.462418
10875.000000	-73.886368
10921.875000	-74.386833
10968.750000	-73.880394
11015.625000	-73.879044
11062.500000	-74.596756
11109.375000	-74.889900
11156.250000	-74.975853
11203.125000	-75.329514
11250.000000	-75.578880
11296.875000	-74.929749
11343.750000	-75.038322
11390.625000	-75.672379
11437.500000	-76.291267
11484.375000	-76.651711
11531.250000	-76.531128
11578.125000	-76.791527
11625.000000	-76.779411
11671.875000	-76.705254
11718.750000	-76.668259
11765.625000	-76.619942
11812.500000	-77.135406
11859.375000	-77.380005
11906.250000	-77.574081
11953.125000	-77.685944
12000.000000	-77.876541
12046.875000	-78.063194
12093.750000	-78.185806
12140.625000	-78.225533
12187.500000	-78.548607
12234.375000	-78.806587
12281.250000	-78.938492
12328.125000	-78.981171
12375.000000	-79.397835
12421.875000	-79.310410
12468.750000	-79.722328
12515.625000	-79.757034
12562.500000	-80.052010
12609.375000	-80.133453
12656.250000	-80.513931
12703.125000	-80.416489
12750.000000	-80.239388
12796.875000	-80.668915
12843.750000	-80.856750
12890.625000	-80.444893
12937.500000	-80.720413
12984.375000	-81.442764
13031.250000	-81.816452
13078.125000	-81.911400
13125.000000	-81.850159
13171.875000	-81.649323
13218.750000	-82.314278
13265.625000	-82.240952
13312.500000	-82.169464
13359.375000	-82.201927
13406.250000	-82.664162
13453.125000	-82.557358
13500.000000	-82.617538
13546.875000	-82.723328
13593.750000	-83.204674
13640.625000	-83.126427
13687.500000	-83.195251
13734.375000	-83.654427
13781.250000	-83.390236
13828.125000	-83.664780
13875.000000	-83.546432
13921.875000	-83.759758
13968.750000	-83.883446
14015.625000	-84.128220
14062.500000	-84.426605
14109.375000	-84.395164
14156.250000	-84.212776
14203.125000	-84.437592
14250.000000	-84.396629
14296.875000	-85.117966
14343.750000	-84.942116
14390.625000	-85.007004
14437.500000	-85.086624
14484.375000	-85.036690
14531.250000	-85.459229
14578.125000	-85.324478
14625.000000	-85.647484
14671.875000	-85.704498
14718.750000	-85.973534
14765.625000	-85.699051
14812.500000	-86.050575
14859.375000	-86.282555
14906.250000	-86.370049
14953.125000	-86.160942
15000.000000	-85.956230
15046.875000	-86.017227
15093.750000	-86.215340
15140.625000	-86.164062
15187.500000	-86.822807
15234.375000	-87.196472
15281.250000	-86.720963
15328.125000	-86.599190
15375.000000	-87.005898
15421.875000	-87.075760
15468.750000	-86.890236
15515.625000	-86.908997
15562.500000	-87.009392
15609.375000	-87.631592
15656.250000	-87.702759
15703.125000	-87.813400
15750.000000	-87.831009
15796.875000	-87.534668
15843.750000	-87.788368
15890.625000	-87.873688
15937.500000	-88.281464
15984.375000	-87.817589
16031.250000	-86.975433
16078.125000	-87.166595
16125.000000	-87.504295
16171.875000	-87.690903
16218.750000	-87.954231
16265.625000	-87.378235
16312.500000	-87.002655
16359.375000	-87.346123
16406.250000	-87.110390
16453.125000	-86.841522
16500.000000	-86.970055
16546.875000	-87.716187
16593.750000	-87.592659
16640.625000	-87.350189
16687.500000	-87.147888
16734.375000	-86.894402
16781.250000	-86.586685
16828.125000	-87.100670
16875.000000	-87.736328
16921.875000	-87.667313
16968.750000	-87.268265
17015.625000	-87.460571
17062.500000	-88.223915
17109.375000	-88.200859
17156.250000	-87.974121
17203.125000	-88.476128
17250.000000	-88.000412
17296.875000	-87.254341
17343.750000	-87.414932
17390.625000	-87.363472
17437.500000	-87.740875
17484.375000	-87.990067
17531.250000	-88.267624
17578.125000	-87.934944
17625.000000	-87.821632
17671.875000	-88.168968
17718.750000	-88.051140
17765.625000	-87.839905
17812.500000	-88.076393
17859.375000	-88.482422
17906.250000	-88.373535
17953.125000	-87.725716
18000.000000	-88.272446
18046.875000	-88.957794
18093.750000	-88.366364
18140.625000	-88.592163
18187.500000	-88.947868
18234.375000	-88.603371
18281.250000	-88.334839
18328.125000	-88.106468
18375.000000	-87.990173
18421.875000	-88.213287
18468.750000	-88.487823
18515.625000	-88.404320
18562.500000	-88.567993
18609.375000	-89.132469
18656.250000	-89.694016
18703.125000	-89.133469
18750.000000	-89.295982
18796.875000	-89.552849
18843.750000	-89.694580
18890.625000	-90.205437
18937.500000	-90.296463
18984.375000	-90.261368
19031.250000	-89.907013
19078.125000	-90.233551
19125.000000	-90.107971
19171.875000	-89.384064
19218.750000	-90.095520
19265.625000	-90.660988
19312.500000	-90.820801
19359.375000	-91.041435
19406.250000	-92.323540
19453.125000	-92.548866
19500.000000	-92.277519
19546.875000	-95.154121
19593.750000	-100.557472
19640.625000	-107.475685
19687.500000	-116.338379
19734.375000	-122.768517
19781.250000	-128.347839
19828.125000	-134.112457
19875.000000	-138.331757
19921.875000	-141.435242
19968.750000	-143.915863
20015.625000	-144.948166
20062.500000	-145.407196
20109.375000	-146.293198
20156.250000	-146.517151
20203.125000	-147.291061
20250.000000	-148.754776
20296.875000	-149.090775
20343.750000	-148.978500
20390.625000	-148.810196
20437.500000	-148.749039
20484.375000	-149.066269
20531.250000	-149.067734
20578.125000	-149.092346
20625.000000	-148.786118
20671.875000	-148.418594
20718.750000	-148.063309
20765.625000	-148.303146
20812.500000	-148.924774
20859.375000	-149.016953
20906.250000	-147.529205
20953.125000	-143.219864
21000.000000	-141.347900
21046.875000	-144.476898
21093.750000	-148.262329
21140.625000	-148.830902
21187.500000	-148.435211
21234.375000	-148.369690
21281.250000	-148.358002
21328.125000	-148.363617
21375.000000	-148.156982
21421.875000	-148.197006
21468.750000	-147.911591
21515.625000	-147.949814
21562.500000	-148.077744
21609.375000	-147.840897
21656.250000	-147.909058
21703.125000	-147.875488
21750.000000	-147.709885
21796.875000	-147.989120
21843.750000	-147.697784
21890.625000	-147.774109
21937.500000	-147.530670
21984.375000	-147.626221
22031.250000	-147.942139
22078.125000	-148.052322
22125.000000	-147.678528
22171.875000	-147.827347
22218.750000	-147.934540
22265.625000	-147.539261
22312.500000	-147.777100
22359.375000	-147.447235
22406.250000	-146.515274
22453.125000	-142.519409
22500.000000	-141.355301
22546.875000	-145.487961
22593.750000	-147.437820
22640.625000	-147.562576
22687.500000	-147.636337
22734.375000	-147.868927
22781.250000	-147.782364
22828.125000	-147.464294
22875.000000	-146.937897
22921.875000	-147.045547
22968.750000	-147.476501
23015.625000	-147.644958
23062.500000	-147.662903
23109.375000	-147.369553
23156.250000	-147.199020
23203.125000	-147.250092
23250.000000	-147.192062
23296.875000	-146.993317
23343.750000	-147.031158
23390.625000	-147.420364
23437.500000	-147.608856
23484.375000	-147.313339
23531.250000	-146.922699
23578.125000	-146.841537
23625.000000	-146.794113
23671.875000	-147.107559
23718.750000	-147.554077
23765.625000	-147.319382
23812.500000	-147.376312
23859.375000	-147.292450
23906.250000	-146.011124
23953.125000	-144.290985
