Frequency (Hz)	Level (dB)
46.875000	-43.528740
93.750000	-44.435802
140.625000	-43.592499
187.500000	-42.972980
234.375000	-45.577251
281.250000	-46.545013
328.125000	-45.951431
375.000000	-47.078220
421.875000	-48.134193
468.750000	-48.539223
515.625000	-48.775524
562.500000	-49.045666
609.375000	-49.184765
656.250000	-48.831860
703.125000	-49.044609
750.000000	-49.090893
796.875000	-49.254414
843.750000	-49.618183
890.625000	-49.987118
937.500000	-50.687988
984.375000	-50.667492
1031.250000	-51.076107
1078.125000	-51.734299
1125.000000	-52.026005
1171.875000	-51.917595
1218.750000	-51.888359
1265.625000	-52.562134
1312.500000	-53.450962
1359.375000	-53.522713
1406.250000	-53.543438
1453.125000	-53.728653
1500.000000	-54.063465
1546.875000	-54.215168
1593.750000	-54.348072
1640.625000	-54.461258
1687.500000	-54.705643
1734.375000	-54.365295
1781.250000	-54.616119
1828.125000	-54.977299
1875.000000	-55.169983
1921.875000	-55.380489
1968.750000	-55.071228
2015.625000	-55.034512
2062.500000	-55.172157
2109.375000	-55.784180
2156.250000	-56.234055
2203.125000	-55.942535
2250.000000	-55.712925
2296.875000	-55.601768
2343.750000	-55.458286
2390.625000	-55.565262
2437.500000	-55.435837
2484.375000	-55.378902
2531.250000	-55.652527
2578.125000	-55.835670
2625.000000	-55.394966
2671.875000	-55.487324
2718.750000	-55.487194
2765.625000	-55.543774
2812.500000	-55.764080
2859.375000	-55.776024
2906.250000	-55.634876
2953.125000	-55.621830
3000.000000	-55.653999
3046.875000	-55.778549
3093.750000	-55.474731
3140.625000	-55.462276
3187.500000	-55.163059
3234.375000	-55.048668
3281.250000	-55.285305
3328.125000	-55.477234
3375.000000	-55.793007
3421.875000	-55.932148
3468.750000	-55.895042
3515.625000	-55.718372
3562.500000	-55.788151
3609.375000	-55.951431
3656.250000	-55.938206
3703.125000	-55.845921
3750.000000	-56.324814
3796.875000	-56.042229
3843.750000	-56.274757
3890.625000	-56.508938
3937.500000	-56.129337
3984.375000	-56.544209
4031.250000	-56.555260
4078.125000	-56.648083
4125.000000	-56.802689
4171.875000	-57.367794
4218.750000	-57.147995
4265.625000	-56.944126
4312.500000	-56.846664
4359.375000	-56.753696
4406.250000	-57.075542
4453.125000	-57.564507
4500.000000	-57.293720
4546.875000	-57.224918
4593.750000	-57.137157
4640.625000	-57.147594
4687.500000	-57.496941
4734.375000	-57.753468
4781.250000	-57.912762
4828.125000	-57.991554
4875.000000	-57.881191
4921.875000	-58.016479
4968.750000	-57.879307
5015.625000	-58.027424
5062.500000	-58.356007
5109.375000	-58.901981
5156.250000	-58.378670
5203.125000	-58.480446
5250.000000	-59.359726
5296.875000	-59.391171
5343.750000	-59.305882
5390.625000	-59.236206
5437.500000	-58.855896
5484.375000	-59.302437
5531.250000	-59.972889
5578.125000	-59.831890
5625.000000	-59.708855
5671.875000	-59.869694
5718.750000	-60.165554
5765.625000	-60.407692
5812.500000	-60.570808
5859.375000	-60.700375
5906.250000	-60.751728
5953.125000	-60.956142
6000.000000	-60.734638
6046.875000	-61.383133
6093.750000	-61.911526
6140.625000	-62.106697
6187.500000	-62.066368
6234.375000	-62.097641
6281.250000	-62.334908
6328.125000	-61.929222
6375.000000	-61.774754
6421.875000	-62.365021
6468.750000	-62.798084
6515.625000	-63.064976
6562.500000	-63.165142
6609.375000	-63.264545
6656.250000	-63.726212
6703.125000	-63.415695
6750.000000	-63.519138
6796.875000	-64.113129
6843.750000	-64.288116
6890.625000	-64.108055
6937.500000	-64.145271
6984.375000	-64.692818
7031.250000	-65.034279
7078.125000	-64.833481
7125.000000	-65.001816
7171.875000	-65.321114
7218.750000	-65.028603
7265.625000	-65.368172
7312.500000	-65.270149
7359.375000	-65.316315
7406.250000	-65.428329
7453.125000	-65.702156
7500.000000	-65.382042
7546.875000	-65.307098
7593.750000	-65.804359
7640.625000	-65.906143
7687.500000	-65.735413
7734.375000	-66.440514
7781.250000	-66.309143
7828.125000	-66.115524
7875.000000	-66.603096
7921.875000	-66.569122
7968.750000	-66.850037
8015.625000	-66.534515
8062.500000	-66.143280
8109.375000	-66.393082
8156.250000	-66.742516
8203.125000	-66.653435
8250.000000	-66.855850
8296.875000	-66.668724
8343.750000	-66.674179
8390.625000	-66.804680
8437.500000	-66.519264
8484.375000	-66.238960
8531.250000	-66.270058
8578.125000	-66.875717
8625.000000	-66.830963
8671.875000	-66.989769
8718.750000	-66.941513
8765.625000	-66.746773
8812.500000	-66.922981
8859.375000	-66.834145
8906.250000	-67.138618
8953.125000	-67.341034
9000.000000	-67.079041
9046.875000	-67.005501
9093.750000	-67.241600
9140.625000	-67.881401
9187.500000	-67.807945
9234.375000	-67.398140
9281.250000	-67.251122
9328.125000	-67.408165
9375.000000	-67.929619
9421.875000	-68.144211
9468.750000	-67.961052
9515.625000	-68.164253
9562.500000	-68.237549
9609.375000	-67.984360
9656.250000	-68.294968
9703.125000	-68.137123
9750.000000	-68.488503
9796.875000	-68.412781
9843.750000	-68.038864
9890.625000	-68.349983
9937.500000	-68.492287
9984.375000	-68.705078
10031.250000	-69.180939
10078.125000	-69.100204
10125.000000	-68.965614
10171.875000	-68.678169
10218.750000	-69.234634
10265.625000	-69.204895
10312.500000	-69.401909
10359.375000	-69.792458
10406.250000	-70.039078
10453.125000	-70.057182
10500.000000	-70.279739
10546.875000	-70.563370
10593.750000	-70.806252
10640.625000	-70.757637
10687.500000	-70.881729
10734.375000	-71.294441
10781.250000	-71.795891
10828.125000	-71.863792
10875.000000	-72.208542
10921.875000	-72.209206
10968.750000	-71.894424
11015.625000	-71.607513
11062.500000	-71.904655
11109.375000	-72.567085
11156.250000	-72.345177
11203.125000	-72.451416
11250.000000	-72.877625
11296.875000	-72.704430
11343.750000	-72.977455
11390.625000	-73.005638
11437.500000	-72.787582
11484.375000	-73.370346
11531.250000	-73.581474
11578.125000	-73.756165
11625.000000	-74.090981
11671.875000	-74.370750
11718.750000	-74.235680
11765.625000	-74.920578
11812.500000	-75.479568
11859.375000	-75.647980
11906.250000	-75.440010
11953.125000	-75.290131
12000.000000	-75.526405
12046.875000	-75.819244
12093.750000	-76.162285
12140.625000	-76.095238
12187.500000	-76.133408
12234.375000	-76.664146
12281.250000	-77.046326
12328.125000	-77.331039
12375.000000	-77.111511
12421.875000	-77.411690
12468.750000	-77.446800
12515.625000	-77.693069
12562.500000	-77.715881
12609.375000	-77.875626
12656.250000	-78.411911
12703.125000	-78.850334
12750.000000	-78.556366
12796.875000	-78.822449
12843.750000	-79.165421
12890.625000	-79.028229
12937.500000	-78.830254
12984.375000	-79.035492
13031.250000	-79.397568
13078.125000	-79.716553
13125.000000	-79.917007
13171.875000	-80.050430
13218.750000	-79.861290
13265.625000	-80.148773
13312.500000	-79.939049
13359.375000	-79.855286
13406.250000	-80.487488
13453.125000	-80.642570
13500.000000	-80.570274
13546.875000	-80.945587
13593.750000	-81.172981
13640.625000	-81.090279
13687.500000	-81.304680
13734.375000	-81.692940
13781.250000	-82.131439
13828.125000	-82.152008
13875.000000	-82.622177
13921.875000	-82.720070
13968.750000	-82.608681
14015.625000	-82.363495
14062.500000	-82.398567
14109.375000	-82.797340
14156.250000	-82.887383
14203.125000	-83.050514
14250.000000	-83.149429
14296.875000	-83.417076
14343.750000	-83.896553
14390.625000	-83.648376
14437.500000	-83.898811
14484.375000	-83.917709
14531.250000	-83.883766
14578.125000	-84.395645
14625.000000	-84.784599
14671.875000	-84.246368
14718.750000	-84.496643
14765.625000	-84.822243
14812.500000	-84.354393
14859.375000	-84.625008
14906.250000	-84.674438
14953.125000	-85.120735
15000.000000	-85.529129
15046.875000	-85.757919
15093.750000	-85.554489
15140.625000	-86.244873
15187.500000	-85.967361
15234.375000	-85.613983
15281.250000	-85.848824
15328.125000	-86.013130
15375.000000	-86.329605
15421.875000	-86.084877
15468.750000	-85.801140
15515.625000	-86.007416
15562.500000	-86.407715
15609.375000	-86.638382
15656.250000	-86.602722
15703.125000	-86.474037
15750.000000	-86.743797
15796.875000	-87.027412
15843.750000	-86.860924
15890.625000	-86.906143
15937.500000	-87.251778
15984.375000	-87.055710
16031.250000	-86.270172
16078.125000	-86.112137
16125.000000	-85.890724
16171.875000	-86.003052
16218.750000	-85.751801
16265.625000	-85.804375
16312.500000	-85.948029
16359.375000	-85.625389
16406.250000	-85.638710
16453.125000	-86.084625
16500.000000	-85.991516
16546.875000	-85.957527
16593.750000	-85.959145
16640.625000	-85.970047
16687.500000	-86.189690
16734.375000	-86.202301
16781.250000	-86.167999
16828.125000	-86.506783
16875.000000	-86.688301
16921.875000	-86.579041
16968.750000	-86.761719
17015.625000	-86.628586
17062.500000	-86.527443
17109.375000	-86.793541
17156.250000	-86.710808
17203.125000	-87.029488
17250.000000	-86.630516
17296.875000	-86.349899
17343.750000	-86.437790
17390.625000	-86.544357
17437.500000	-86.442848
17484.375000	-86.663536
17531.250000	-86.393158
17578.125000	-86.415756
17625.000000	-86.976761
17671.875000	-87.178108
17718.750000	-86.996567
17765.625000	-86.862030
17812.500000	-87.015335
17859.375000	-87.405342
17906.250000	-87.305016
17953.125000	-87.565758
18000.000000	-87.526253
18046.875000	-87.235146
18093.750000	-87.616371
18140.625000	-87.536278
18187.500000	-87.243744
18234.375000	-87.083443
18281.250000	-87.278412
18328.125000	-87.809532
18375.000000	-87.491936
18421.875000	-87.110817
18468.750000	-88.244591
18515.625000	-88.560272
18562.500000	-88.113647
18609.375000	-87.779640
18656.250000	-87.902946
18703.125000	-87.851433
18750.000000	-87.780563
18796.875000	-88.490730
18843.750000	-88.540657
18890.625000	-87.823074
18937.500000	-88.082993
18984.375000	-88.600906
19031.250000	-88.268639
19078.125000	-88.720955
19125.000000	-88.710632
19171.875000	-89.004837
19218.750000	-89.559959
19265.625000	-90.215019
19312.500000	-89.886063
19359.375000	-90.098091
19406.250000	-91.133911
19453.125000	-91.079193
19500.000000	-91.907349
19546.875000	-93.761993
19593.750000	-97.059586
19640.625000	-103.896515
19687.500000	-113.821281
19734.375000	-121.739265
19781.250000	-127.770874
19828.125000	-133.501465
19875.000000	-138.220886
19921.875000	-140.889145
19968.750000	-142.584595
20015.625000	-143.072113
20062.500000	-142.955780
20109.375000	-142.836456
20156.250000	-143.483871
20203.125000	-145.034103
20250.000000	-147.593140
20296.875000	-148.528992
20343.750000	-147.888153
20390.625000	-147.624390
20437.500000	-147.544632
20484.375000	-148.196625
20531.250000	-148.557114
20578.125000	-149.036041
20625.000000	-148.741074
20671.875000	-147.925415
20718.750000	-147.656891
20765.625000	-148.597748
20812.500000	-148.686249
20859.375000	-148.757690
20906.250000	-148.060471
20953.125000	-147.422882
21000.000000	-147.336517
21046.875000	-147.964462
21093.750000	-148.362854
21140.625000	-148.118317
21187.500000	-147.746536
21234.375000	-148.017792
21281.250000	-148.410843
21328.125000	-148.422485
21375.000000	-147.950958
21421.875000	-147.562149
21468.750000	-147.536972
21515.625000	-148.005020
21562.500000	-147.905365
21609.375000	-147.746231
21656.250000	-147.834442
21703.125000	-147.604248
21750.000000	-147.376831
21796.875000	-147.566422
21843.750000	-147.534042
21890.625000	-147.657501
21937.500000	-147.408997
21984.375000	-147.550842
22031.250000	-147.427612
22078.125000	-147.618439
22125.000000	-147.497147
22171.875000	-147.185379
22218.750000	-147.735443
22265.625000	-147.637817
22312.500000	-147.191315
22359.375000	-146.784500
22406.250000	-147.246445
22453.125000	-147.120514
22500.000000	-146.809982
22546.875000	-147.131485
22593.750000	-146.995636
22640.625000	-146.941284
22687.500000	-146.937897
22734.375000	-147.472260
22781.250000	-147.428558
22828.125000	-147.307281
22875.000000	-146.463486
22921.875000	-146.995789
22968.750000	-147.182312
23015.625000	-147.108994
23062.500000	-147.101181
23109.375000	-146.999786
23156.250000	-146.978241
23203.125000	-146.760117
23250.000000	-147.154587
23296.875000	-146.729843
23343.750000	-146.678268
23390.625000	-146.896698
23437.500000	-147.153809
23484.375000	-147.154343
23531.250000	-146.556259
23578.125000	-146.663223
23625.000000	-146.452271
23671.875000	-146.944260
23718.750000	-147.231369
23765.625000	-146.722763
23812.500000	-146.844543
23859.375000	-147.220169
23906.250000	-146.625275
23953.125000	-146.640518
