Frequency (Hz)	Level (dB)
46.875000	-42.745293
93.750000	-49.566349
140.625000	-56.873928
187.500000	-60.909744
234.375000	-63.367939
281.250000	-63.697056
328.125000	-64.082382
375.000000	-65.268974
421.875000	-65.433937
468.750000	-65.715996
515.625000	-65.792900
562.500000	-66.066628
609.375000	-66.919197
656.250000	-67.536148
703.125000	-67.961121
750.000000	-67.705177
796.875000	-67.814751
843.750000	-68.506531
890.625000	-68.896629
937.500000	-69.145332
984.375000	-69.255768
1031.250000	-69.763725
1078.125000	-70.714157
1125.000000	-71.213837
1171.875000	-71.765297
1218.750000	-72.537605
1265.625000	-72.787155
1312.500000	-73.068695
1359.375000	-73.183571
1406.250000	-73.214851
1453.125000	-73.818237
1500.000000	-74.074821
1546.875000	-74.111305
1593.750000	-74.553314
1640.625000	-75.035301
1687.500000	-75.386002
1734.375000	-75.802399
1781.250000	-76.126274
1828.125000	-75.647224
1875.000000	-76.081161
1921.875000	-76.824516
1968.750000	-77.192581
2015.625000	-77.471985
2062.500000	-77.359642
2109.375000	-77.385956
2156.250000	-77.453659
2203.125000	-78.122688
2250.000000	-78.008102
2296.875000	-77.707863
2343.750000	-77.741646
2390.625000	-77.930489
2437.500000	-78.372055
2484.375000	-78.501091
2531.250000	-78.174141
2578.125000	-78.008987
2625.000000	-78.285393
2671.875000	-78.357559
2718.750000	-78.289780
2765.625000	-78.324692
2812.500000	-79.002228
2859.375000	-78.983772
2906.250000	-78.699089
2953.125000	-78.608681
3000.000000	-78.849602
3046.875000	-79.459824
3093.750000	-79.620323
3140.625000	-79.268646
3187.500000	-79.258301
3234.375000	-79.360153
3281.250000	-79.368004
3328.125000	-79.248291
3375.000000	-79.674904
3421.875000	-79.713753
3468.750000	-79.558479
3515.625000	-79.312622
3562.500000	-78.943443
3609.375000	-78.726036
3656.250000	-78.751518
3703.125000	-79.514709
3750.000000	-80.118004
3796.875000	-80.099266
3843.750000	-80.302940
3890.625000	-80.370903
3937.500000	-80.044998
3984.375000	-79.890907
4031.250000	-80.038719
4078.125000	-79.854080
4125.000000	-80.169189
4171.875000	-80.414085
4218.750000	-80.655075
4265.625000	-80.699738
4312.500000	-80.457390
4359.375000	-80.246109
4406.250000	-80.539474
4453.125000	-80.616753
4500.000000	-80.835510
4546.875000	-81.191986
4593.750000	-81.811577
4640.625000	-81.536972
4687.500000	-81.029373
4734.375000	-80.911179
4781.250000	-81.284966
4828.125000	-81.055435
4875.000000	-81.161224
4921.875000	-81.897713
4968.750000	-81.647301
5015.625000	-81.549728
5062.500000	-81.716766
5109.375000	-81.787956
5156.250000	-81.837967
5203.125000	-81.725571
5250.000000	-81.681641
5296.875000	-82.207382
5343.750000	-81.870018
5390.625000	-82.349426
5437.500000	-82.676903
5484.375000	-82.769684
5531.250000	-82.513786
5578.125000	-82.493011
5625.000000	-83.149826
5671.875000	-83.317986
5718.750000	-83.300491
5765.625000	-82.789452
5812.500000	-82.661324
5859.375000	-83.022179
5906.250000	-83.643906
5953.125000	-83.771919
6000.000000	-83.966774
6046.875000	-84.663750
6093.750000	-83.750710
6140.625000	-83.783951
6187.500000	-83.449951
6234.375000	-82.608040
6281.250000	-83.273842
6328.125000	-83.158020
6375.000000	-83.155449
6421.875000	-84.156075
6468.750000	-84.181244
6515.625000	-84.874016
6562.500000	-84.820656
6609.375000	-84.768578
6656.250000	-83.289612
6703.125000	-83.129868
6750.000000	-84.184807
6796.875000	-84.464462
6843.750000	-84.901131
6890.625000	-84.380310
6937.500000	-84.806671
6984.375000	-85.398842
7031.250000	-86.521378
7078.125000	-86.518944
7125.000000	-86.353783
7171.875000	-86.286224
7218.750000	-86.512642
7265.625000	-86.403755
7312.500000	-86.700409
7359.375000	-86.643700
7406.250000	-86.758553
7453.125000	-86.377785
7500.000000	-86.605087
7546.875000	-86.836960
7593.750000	-87.614174
7640.625000	-87.026016
7687.500000	-87.221672
7734.375000	-87.793510
7781.250000	-87.801025
7828.125000	-87.461319
7875.000000	-87.689377
7921.875000	-87.617088
7968.750000	-87.257408
8015.625000	-87.581566
8062.500000	-87.317657
8109.375000	-87.026924
8156.250000	-87.312820
8203.125000	-88.282051
8250.000000	-88.426270
8296.875000	-88.452194
8343.750000	-88.570351
8390.625000	-88.568275
8437.500000	-87.911453
8484.375000	-88.428131
8531.250000	-88.949463
8578.125000	-88.501205
8625.000000	-88.287949
8671.875000	-88.724838
8718.750000	-88.795654
8765.625000	-88.657219
8812.500000	-89.172905
8859.375000	-89.025131
8906.250000	-88.540222
8953.125000	-88.438202
9000.000000	-88.684525
9046.875000	-88.676407
9093.750000	-89.390617
9140.625000	-89.914688
9187.500000	-89.209648
9234.375000	-88.015388
9281.250000	-88.344444
9328.125000	-89.254028
9375.000000	-89.493202
9421.875000	-89.525787
9468.750000	-89.376976
9515.625000	-89.413765
9562.500000	-89.414520
9609.375000	-89.162041
9656.250000	-88.714867
9703.125000	-88.496117
9750.000000	-88.948082
9796.875000	-89.426758
9843.750000	-89.869156
9890.625000	-89.477615
9937.500000	-89.398979
9984.375000	-89.947937
10031.250000	-90.623924
10078.125000	-90.493256
10125.000000	-89.889442
10171.875000	-90.125832
10218.750000	-90.856155
10265.625000	-90.762222
10312.500000	-90.371994
10359.375000	-90.772255
10406.250000	-90.650009
10453.125000	-90.888435
10500.000000	-91.348633
10546.875000	-90.876160
10593.750000	-91.180878
10640.625000	-91.406006
10687.500000	-91.192680
10734.375000	-91.130783
10781.250000	-91.210632
10828.125000	-92.081673
10875.000000	-91.764679
10921.875000	-91.430603
10968.750000	-91.932304
11015.625000	-92.768364
11062.500000	-91.935806
11109.375000	-91.371086
11156.250000	-92.136604
11203.125000	-93.281525
11250.000000	-93.248192
11296.875000	-93.111519
11343.750000	-93.224159
11390.625000	-93.294716
11437.500000	-93.680916
11484.375000	-93.188683
11531.250000	-93.104919
11578.125000	-93.415764
11625.000000	-94.072456
11671.875000	-94.565910
11718.750000	-94.292229
11765.625000	-94.707283
11812.500000	-95.014168
11859.375000	-95.493942
11906.250000	-95.273766
11953.125000	-94.696548
12000.000000	-94.238754
12046.875000	-94.350121
12093.750000	-95.217278
12140.625000	-95.258270
12187.500000	-95.115288
12234.375000	-95.188049
12281.250000	-95.751846
12328.125000	-96.722427
12375.000000	-95.995613
12421.875000	-95.395828
12468.750000	-95.588951
12515.625000	-96.143196
12562.500000	-96.741096
12609.375000	-96.356995
12656.250000	-96.177277
12703.125000	-96.241547
12750.000000	-96.726189
12796.875000	-96.448654
12843.750000	-96.552505
12890.625000	-97.050407
12937.500000	-97.378983
12984.375000	-97.387146
13031.250000	-97.011703
13078.125000	-97.042145
13125.000000	-97.970459
13171.875000	-98.146935
13218.750000	-98.207886
13265.625000	-98.386101
13312.500000	-97.114220
13359.375000	-96.077217
13406.250000	-96.222855
13453.125000	-97.725441
13500.000000	-98.739906
13546.875000	-98.819153
13593.750000	-99.177216
13640.625000	-99.335625
13687.500000	-98.487709
13734.375000	-97.714233
13781.250000	-97.710068
13828.125000	-98.358696
13875.000000	-98.815018
13921.875000	-99.298164
13968.750000	-99.746284
14015.625000	-100.383293
14062.500000	-101.001251
14109.375000	-100.696411
14156.250000	-99.784554
14203.125000	-99.931244
14250.000000	-100.861778
14296.875000	-101.220634
14343.750000	-101.202927
14390.625000	-101.323311
14437.500000	-100.932899
14484.375000	-100.647415
14531.250000	-101.241333
14578.125000	-101.403648
14625.000000	-101.886543
14671.875000	-101.060318
14718.750000	-101.092285
14765.625000	-102.395439
14812.500000	-101.802391
14859.375000	-101.166786
14906.250000	-101.825348
14953.125000	-102.783241
15000.000000	-102.549950
15046.875000	-102.579857
15093.750000	-102.883217
15140.625000	-102.519020
15187.500000	-103.328804
15234.375000	-103.873878
15281.250000	-103.283028
15328.125000	-103.228745
15375.000000	-103.396034
15421.875000	-102.849396
15468.750000	-103.241852
15515.625000	-103.511780
15562.500000	-103.175537
15609.375000	-103.253212
15656.250000	-102.357635
15703.125000	-102.502449
15750.000000	-102.239189
15796.875000	-102.610428
15843.750000	-104.259895
15890.625000	-104.136337
15937.500000	-104.419968
15984.375000	-104.360428
16031.250000	-103.913445
16078.125000	-104.251434
16125.000000	-103.039032
16171.875000	-101.634262
16218.750000	-102.745003
16265.625000	-103.594887
16312.500000	-103.486267
16359.375000	-103.373070
16406.250000	-105.192223
16453.125000	-104.785851
16500.000000	-104.602005
16546.875000	-105.018837
16593.750000	-105.221802
16640.625000	-104.505486
16687.500000	-105.204559
16734.375000	-106.995926
16781.250000	-106.946747
16828.125000	-107.560532
16875.000000	-107.451080
16921.875000	-105.302917
16968.750000	-103.873940
17015.625000	-104.604332
17062.500000	-104.442825
17109.375000	-104.133179
17156.250000	-106.003624
17203.125000	-108.681847
17250.000000	-109.247574
17296.875000	-108.254669
17343.750000	-107.753975
17390.625000	-106.863289
17437.500000	-106.913933
17484.375000	-107.899757
17531.250000	-109.556450
17578.125000	-108.506836
17625.000000	-108.369514
17671.875000	-109.320633
17718.750000	-108.209961
17765.625000	-106.181503
17812.500000	-106.194466
17859.375000	-107.369270
17906.250000	-107.859978
17953.125000	-108.060295
18000.000000	-106.689064
18046.875000	-106.753654
18093.750000	-108.817581
18140.625000	-111.508888
18187.500000	-112.670906
18234.375000	-112.334389
18281.250000	-112.022461
18328.125000	-111.987030
18375.000000	-112.461845
18421.875000	-111.845566
18468.750000	-111.828697
18515.625000	-112.212685
18562.500000	-112.530632
18609.375000	-112.231094
18656.250000	-112.993729
18703.125000	-112.259575
18750.000000	-111.806183
18796.875000	-113.745750
18843.750000	-113.930466
18890.625000	-112.799667
18937.500000	-114.646057
18984.375000	-116.221596
19031.250000	-115.061722
19078.125000	-113.410278
19125.000000	-114.854980
19171.875000	-117.754318
19218.750000	-119.026443
19265.625000	-118.463089
19312.500000	-118.122520
19359.375000	-117.205582
19406.250000	-118.177261
19453.125000	-118.867287
19500.000000	-119.341637
19546.875000	-122.859230
19593.750000	-130.031097
19640.625000	-136.508575
19687.500000	-142.187195
19734.375000	-141.889618
19781.250000	-143.383347
19828.125000	-147.739670
19875.000000	-149.245316
19921.875000	-148.592148
19968.750000	-147.557861
20015.625000	-145.256226
20062.500000	-143.078033
20109.375000	-141.681732
20156.250000	-141.251373
20203.125000	-142.285721
20250.000000	-143.770798
20296.875000	-146.063339
20343.750000	-147.177780
20390.625000	-147.942276
20437.500000	-148.886078
20484.375000	-149.053436
20531.250000	-149.370514
20578.125000	-149.445038
20625.000000	-148.989746
20671.875000	-148.884933
20718.750000	-148.815887
20765.625000	-148.949600
20812.500000	-148.978577
20859.375000	-149.423325
20906.250000	-148.644501
20953.125000	-147.530563
21000.000000	-147.281555
21046.875000	-148.167068
21093.750000	-149.016052
21140.625000	-148.819733
21187.500000	-148.690506
21234.375000	-148.678986
21281.250000	-148.942688
21328.125000	-149.002121
21375.000000	-148.562851
21421.875000	-148.571701
21468.750000	-148.590820
21515.625000	-148.592804
21562.500000	-148.464355
21609.375000	-148.248093
21656.250000	-148.107986
21703.125000	-148.096573
21750.000000	-147.916092
21796.875000	-147.926712
21843.750000	-147.762787
21890.625000	-147.977234
21937.500000	-148.237274
21984.375000	-148.306854
22031.250000	-148.072174
22078.125000	-148.022430
22125.000000	-147.896057
22171.875000	-147.885056
22218.750000	-148.233582
22265.625000	-147.956009
22312.500000	-148.417923
22359.375000	-148.157791
22406.250000	-147.875504
22453.125000	-146.822327
22500.000000	-146.384995
22546.875000	-147.012619
22593.750000	-147.180405
22640.625000	-147.405228
22687.500000	-147.127441
22734.375000	-147.458939
22781.250000	-147.521957
22828.125000	-147.309830
22875.000000	-147.387329
22921.875000	-147.388275
22968.750000	-147.341919
23015.625000	-147.577942
23062.500000	-147.788528
23109.375000	-147.372131
23156.250000	-147.366364
23203.125000	-147.392883
23250.000000	-147.117050
23296.875000	-147.232803
23343.750000	-147.073380
23390.625000	-147.447083
23437.500000	-147.614609
23484.375000	-147.634949
23531.250000	-147.072540
23578.125000	-147.542053
23625.000000	-147.637802
23671.875000	-147.334030
23718.750000	-147.553940
23765.625000	-147.652557
23812.500000	-147.429031
23859.375000	-147.409317
23906.250000	-146.841705
23953.125000	-146.632767
